July 9, 2019   19:34:30
Bulk Electrolysis with Coulometry
File: it-5000s
Data Source:  Experiment
Instrument Model:  CHI604E
Header: 
Note: 

Init E (V) = 2.5
End Current Ratio (%) = 10
Data Storage Interval (s) = 5

Total Q = -3.2446e+0C
End i = -8.6441e-4A

Time/sec, Charge/C, Current/A

5.000, -2.937e-3, -5.874e-4
10.000, -5.313e-3, -4.751e-4
15.000, -7.597e-3, -4.568e-4
20.000, -9.824e-3, -4.454e-4
25.000, -1.201e-2, -4.364e-4
30.000, -1.415e-2, -4.289e-4
35.000, -1.626e-2, -4.222e-4
40.000, -1.834e-2, -4.159e-4
45.000, -2.039e-2, -4.102e-4
50.000, -2.242e-2, -4.052e-4
55.000, -2.442e-2, -4.003e-4
60.000, -2.640e-2, -3.951e-4
65.000, -2.835e-2, -3.902e-4
70.000, -3.027e-2, -3.854e-4
75.000, -3.218e-2, -3.808e-4
80.000, -3.406e-2, -3.765e-4
85.000, -3.592e-2, -3.719e-4
90.000, -3.776e-2, -3.675e-4
95.000, -3.958e-2, -3.638e-4
100.000, -4.138e-2, -3.606e-4
105.000, -4.317e-2, -3.575e-4
110.000, -4.494e-2, -3.549e-4
115.000, -4.671e-2, -3.528e-4
120.000, -4.846e-2, -3.512e-4
125.000, -5.021e-2, -3.500e-4
130.000, -5.195e-2, -3.484e-4
135.000, -5.369e-2, -3.470e-4
140.000, -5.542e-2, -3.463e-4
145.000, -5.715e-2, -3.458e-4
150.000, -5.888e-2, -3.455e-4
155.000, -6.060e-2, -3.453e-4
160.000, -6.233e-2, -3.454e-4
165.000, -6.406e-2, -3.455e-4
170.000, -6.579e-2, -3.460e-4
175.000, -6.752e-2, -3.464e-4
180.000, -6.925e-2, -3.468e-4
185.000, -7.099e-2, -3.473e-4
190.000, -7.273e-2, -3.479e-4
195.000, -7.447e-2, -3.477e-4
200.000, -7.621e-2, -3.482e-4
205.000, -7.796e-2, -3.493e-4
210.000, -7.971e-2, -3.507e-4
215.000, -8.147e-2, -3.521e-4
220.000, -8.324e-2, -3.537e-4
225.000, -8.501e-2, -3.553e-4
230.000, -8.680e-2, -3.569e-4
235.000, -8.859e-2, -3.583e-4
240.000, -9.039e-2, -3.599e-4
245.000, -9.220e-2, -3.613e-4
250.000, -9.401e-2, -3.624e-4
255.000, -9.583e-2, -3.635e-4
260.000, -9.765e-2, -3.653e-4
265.000, -9.949e-2, -3.678e-4
270.000, -1.013e-1, -3.706e-4
275.000, -1.032e-1, -3.736e-4
280.000, -1.051e-1, -3.760e-4
285.000, -1.070e-1, -3.778e-4
290.000, -1.089e-1, -3.797e-4
295.000, -1.108e-1, -3.821e-4
300.000, -1.127e-1, -3.849e-4
305.000, -1.147e-1, -3.873e-4
310.000, -1.166e-1, -3.891e-4
315.000, -1.186e-1, -3.914e-4
320.000, -1.205e-1, -3.939e-4
325.000, -1.225e-1, -3.967e-4
330.000, -1.245e-1, -3.993e-4
335.000, -1.265e-1, -4.011e-4
340.000, -1.285e-1, -4.016e-4
345.000, -1.305e-1, -4.028e-4
350.000, -1.326e-1, -4.041e-4
355.000, -1.346e-1, -4.055e-4
360.000, -1.366e-1, -4.065e-4
365.000, -1.386e-1, -4.066e-4
370.000, -1.407e-1, -4.077e-4
375.000, -1.427e-1, -4.091e-4
380.000, -1.448e-1, -4.105e-4
385.000, -1.468e-1, -4.114e-4
390.000, -1.489e-1, -4.123e-4
395.000, -1.510e-1, -4.133e-4
400.000, -1.530e-1, -4.143e-4
405.000, -1.551e-1, -4.153e-4
410.000, -1.572e-1, -4.166e-4
415.000, -1.593e-1, -4.179e-4
420.000, -1.614e-1, -4.183e-4
425.000, -1.635e-1, -4.188e-4
430.000, -1.656e-1, -4.198e-4
435.000, -1.677e-1, -4.203e-4
440.000, -1.698e-1, -4.208e-4
445.000, -1.719e-1, -4.212e-4
450.000, -1.740e-1, -4.215e-4
455.000, -1.761e-1, -4.223e-4
460.000, -1.782e-1, -4.226e-4
465.000, -1.803e-1, -4.227e-4
470.000, -1.824e-1, -4.230e-4
475.000, -1.846e-1, -4.231e-4
480.000, -1.867e-1, -4.231e-4
485.000, -1.888e-1, -4.232e-4
490.000, -1.909e-1, -4.230e-4
495.000, -1.930e-1, -4.229e-4
500.000, -1.951e-1, -4.236e-4
505.000, -1.973e-1, -4.239e-4
510.000, -1.994e-1, -4.250e-4
515.000, -2.015e-1, -4.261e-4
520.000, -2.036e-1, -4.270e-4
525.000, -2.058e-1, -4.274e-4
530.000, -2.079e-1, -4.274e-4
535.000, -2.101e-1, -4.275e-4
540.000, -2.122e-1, -4.271e-4
545.000, -2.143e-1, -4.267e-4
550.000, -2.165e-1, -4.266e-4
555.000, -2.186e-1, -4.267e-4
560.000, -2.207e-1, -4.272e-4
565.000, -2.229e-1, -4.287e-4
570.000, -2.250e-1, -4.295e-4
575.000, -2.272e-1, -4.298e-4
580.000, -2.293e-1, -4.303e-4
585.000, -2.315e-1, -4.298e-4
590.000, -2.336e-1, -4.290e-4
595.000, -2.358e-1, -4.280e-4
600.000, -2.379e-1, -4.281e-4
605.000, -2.400e-1, -4.297e-4
610.000, -2.422e-1, -4.295e-4
615.000, -2.443e-1, -4.301e-4
620.000, -2.465e-1, -4.323e-4
625.000, -2.487e-1, -4.350e-4
630.000, -2.509e-1, -4.378e-4
635.000, -2.531e-1, -4.391e-4
640.000, -2.553e-1, -4.399e-4
645.000, -2.575e-1, -4.410e-4
650.000, -2.597e-1, -4.421e-4
655.000, -2.619e-1, -4.444e-4
660.000, -2.641e-1, -4.459e-4
665.000, -2.664e-1, -4.466e-4
670.000, -2.686e-1, -4.471e-4
675.000, -2.708e-1, -4.474e-4
680.000, -2.731e-1, -4.480e-4
685.000, -2.753e-1, -4.489e-4
690.000, -2.776e-1, -4.497e-4
695.000, -2.798e-1, -4.499e-4
700.000, -2.821e-1, -4.506e-4
705.000, -2.843e-1, -4.514e-4
710.000, -2.866e-1, -4.542e-4
715.000, -2.889e-1, -4.569e-4
720.000, -2.912e-1, -4.587e-4
725.000, -2.935e-1, -4.608e-4
730.000, -2.958e-1, -4.638e-4
735.000, -2.981e-1, -4.665e-4
740.000, -3.005e-1, -4.682e-4
745.000, -3.028e-1, -4.697e-4
750.000, -3.052e-1, -4.716e-4
755.000, -3.076e-1, -4.745e-4
760.000, -3.099e-1, -4.775e-4
765.000, -3.123e-1, -4.800e-4
770.000, -3.148e-1, -4.826e-4
775.000, -3.172e-1, -4.847e-4
780.000, -3.196e-1, -4.859e-4
785.000, -3.220e-1, -4.872e-4
790.000, -3.245e-1, -4.900e-4
795.000, -3.270e-1, -4.930e-4
800.000, -3.294e-1, -4.947e-4
805.000, -3.319e-1, -4.962e-4
810.000, -3.344e-1, -4.975e-4
815.000, -3.369e-1, -4.992e-4
820.000, -3.394e-1, -5.000e-4
825.000, -3.419e-1, -5.005e-4
830.000, -3.444e-1, -5.004e-4
835.000, -3.469e-1, -5.004e-4
840.000, -3.494e-1, -5.014e-4
845.000, -3.519e-1, -5.031e-4
850.000, -3.545e-1, -5.055e-4
855.000, -3.570e-1, -5.090e-4
860.000, -3.596e-1, -5.131e-4
865.000, -3.621e-1, -5.161e-4
870.000, -3.647e-1, -5.171e-4
875.000, -3.673e-1, -5.167e-4
880.000, -3.699e-1, -5.180e-4
885.000, -3.725e-1, -5.194e-4
890.000, -3.751e-1, -5.204e-4
895.000, -3.777e-1, -5.210e-4
900.000, -3.803e-1, -5.219e-4
905.000, -3.829e-1, -5.223e-4
910.000, -3.855e-1, -5.224e-4
915.000, -3.882e-1, -5.229e-4
920.000, -3.908e-1, -5.230e-4
925.000, -3.934e-1, -5.231e-4
930.000, -3.960e-1, -5.240e-4
935.000, -3.986e-1, -5.249e-4
940.000, -4.013e-1, -5.264e-4
945.000, -4.039e-1, -5.270e-4
950.000, -4.065e-1, -5.274e-4
955.000, -4.092e-1, -5.273e-4
960.000, -4.118e-1, -5.282e-4
965.000, -4.145e-1, -5.285e-4
970.000, -4.171e-1, -5.295e-4
975.000, -4.197e-1, -5.296e-4
980.000, -4.224e-1, -5.292e-4
985.000, -4.250e-1, -5.298e-4
990.000, -4.277e-1, -5.307e-4
995.000, -4.304e-1, -5.306e-4
1000.000, -4.330e-1, -5.302e-4
1005.000, -4.357e-1, -5.296e-4
1010.000, -4.383e-1, -5.292e-4
1015.000, -4.409e-1, -5.291e-4
1020.000, -4.436e-1, -5.283e-4
1025.000, -4.462e-1, -5.273e-4
1030.000, -4.489e-1, -5.262e-4
1035.000, -4.515e-1, -5.265e-4
1040.000, -4.541e-1, -5.289e-4
1045.000, -4.568e-1, -5.327e-4
1050.000, -4.595e-1, -5.341e-4
1055.000, -4.621e-1, -5.350e-4
1060.000, -4.648e-1, -5.378e-4
1065.000, -4.675e-1, -5.410e-4
1070.000, -4.702e-1, -5.431e-4
1075.000, -4.730e-1, -5.439e-4
1080.000, -4.757e-1, -5.439e-4
1085.000, -4.784e-1, -5.435e-4
1090.000, -4.811e-1, -5.439e-4
1095.000, -4.838e-1, -5.437e-4
1100.000, -4.866e-1, -5.456e-4
1105.000, -4.893e-1, -5.469e-4
1110.000, -4.920e-1, -5.459e-4
1115.000, -4.947e-1, -5.433e-4
1120.000, -4.975e-1, -5.421e-4
1125.000, -5.002e-1, -5.426e-4
1130.000, -5.029e-1, -5.433e-4
1135.000, -5.056e-1, -5.439e-4
1140.000, -5.083e-1, -5.453e-4
1145.000, -5.111e-1, -5.472e-4
1150.000, -5.138e-1, -5.483e-4
1155.000, -5.166e-1, -5.483e-4
1160.000, -5.193e-1, -5.477e-4
1165.000, -5.220e-1, -5.474e-4
1170.000, -5.248e-1, -5.448e-4
1175.000, -5.275e-1, -5.426e-4
1180.000, -5.302e-1, -5.410e-4
1185.000, -5.329e-1, -5.388e-4
1190.000, -5.355e-1, -5.367e-4
1195.000, -5.382e-1, -5.358e-4
1200.000, -5.409e-1, -5.356e-4
1205.000, -5.436e-1, -5.361e-4
1210.000, -5.463e-1, -5.365e-4
1215.000, -5.490e-1, -5.370e-4
1220.000, -5.516e-1, -5.363e-4
1225.000, -5.543e-1, -5.357e-4
1230.000, -5.570e-1, -5.354e-4
1235.000, -5.597e-1, -5.352e-4
1240.000, -5.623e-1, -5.345e-4
1245.000, -5.650e-1, -5.338e-4
1250.000, -5.677e-1, -5.335e-4
1255.000, -5.703e-1, -5.339e-4
1260.000, -5.730e-1, -5.339e-4
1265.000, -5.757e-1, -5.338e-4
1270.000, -5.784e-1, -5.334e-4
1275.000, -5.810e-1, -5.333e-4
1280.000, -5.837e-1, -5.339e-4
1285.000, -5.864e-1, -5.344e-4
1290.000, -5.890e-1, -5.351e-4
1295.000, -5.917e-1, -5.355e-4
1300.000, -5.944e-1, -5.357e-4
1305.000, -5.971e-1, -5.361e-4
1310.000, -5.998e-1, -5.364e-4
1315.000, -6.024e-1, -5.368e-4
1320.000, -6.051e-1, -5.373e-4
1325.000, -6.078e-1, -5.381e-4
1330.000, -6.105e-1, -5.393e-4
1335.000, -6.132e-1, -5.403e-4
1340.000, -6.159e-1, -5.406e-4
1345.000, -6.186e-1, -5.410e-4
1350.000, -6.213e-1, -5.433e-4
1355.000, -6.241e-1, -5.454e-4
1360.000, -6.268e-1, -5.460e-4
1365.000, -6.295e-1, -5.472e-4
1370.000, -6.323e-1, -5.479e-4
1375.000, -6.350e-1, -5.487e-4
1380.000, -6.378e-1, -5.496e-4
1385.000, -6.405e-1, -5.511e-4
1390.000, -6.433e-1, -5.534e-4
1395.000, -6.461e-1, -5.545e-4
1400.000, -6.488e-1, -5.551e-4
1405.000, -6.516e-1, -5.565e-4
1410.000, -6.544e-1, -5.570e-4
1415.000, -6.572e-1, -5.565e-4
1420.000, -6.600e-1, -5.567e-4
1425.000, -6.627e-1, -5.562e-4
1430.000, -6.655e-1, -5.565e-4
1435.000, -6.683e-1, -5.573e-4
1440.000, -6.711e-1, -5.576e-4
1445.000, -6.739e-1, -5.577e-4
1450.000, -6.767e-1, -5.570e-4
1455.000, -6.795e-1, -5.569e-4
1460.000, -6.822e-1, -5.561e-4
1465.000, -6.850e-1, -5.587e-4
1470.000, -6.878e-1, -5.611e-4
1475.000, -6.907e-1, -5.625e-4
1480.000, -6.935e-1, -5.637e-4
1485.000, -6.963e-1, -5.637e-4
1490.000, -6.991e-1, -5.644e-4
1495.000, -7.019e-1, -5.663e-4
1500.000, -7.048e-1, -5.663e-4
1505.000, -7.076e-1, -5.664e-4
1510.000, -7.104e-1, -5.674e-4
1515.000, -7.133e-1, -5.674e-4
1520.000, -7.161e-1, -5.676e-4
1525.000, -7.190e-1, -5.679e-4
1530.000, -7.218e-1, -5.683e-4
1535.000, -7.246e-1, -5.680e-4
1540.000, -7.275e-1, -5.680e-4
1545.000, -7.303e-1, -5.699e-4
1550.000, -7.332e-1, -5.717e-4
1555.000, -7.361e-1, -5.729e-4
1560.000, -7.389e-1, -5.717e-4
1565.000, -7.418e-1, -5.704e-4
1570.000, -7.446e-1, -5.715e-4
1575.000, -7.475e-1, -5.721e-4
1580.000, -7.503e-1, -5.721e-4
1585.000, -7.532e-1, -5.725e-4
1590.000, -7.561e-1, -5.724e-4
1595.000, -7.589e-1, -5.715e-4
1600.000, -7.618e-1, -5.718e-4
1605.000, -7.646e-1, -5.721e-4
1610.000, -7.675e-1, -5.728e-4
1615.000, -7.704e-1, -5.738e-4
1620.000, -7.732e-1, -5.746e-4
1625.000, -7.761e-1, -5.756e-4
1630.000, -7.790e-1, -5.760e-4
1635.000, -7.819e-1, -5.761e-4
1640.000, -7.848e-1, -5.760e-4
1645.000, -7.877e-1, -5.765e-4
1650.000, -7.905e-1, -5.775e-4
1655.000, -7.934e-1, -5.789e-4
1660.000, -7.963e-1, -5.791e-4
1665.000, -7.992e-1, -5.784e-4
1670.000, -8.021e-1, -5.797e-4
1675.000, -8.050e-1, -5.804e-4
1680.000, -8.079e-1, -5.819e-4
1685.000, -8.108e-1, -5.833e-4
1690.000, -8.138e-1, -5.849e-4
1695.000, -8.167e-1, -5.856e-4
1700.000, -8.196e-1, -5.873e-4
1705.000, -8.226e-1, -5.889e-4
1710.000, -8.255e-1, -5.901e-4
1715.000, -8.285e-1, -5.912e-4
1720.000, -8.315e-1, -5.929e-4
1725.000, -8.344e-1, -5.940e-4
1730.000, -8.374e-1, -5.950e-4
1735.000, -8.404e-1, -5.965e-4
1740.000, -8.434e-1, -5.984e-4
1745.000, -8.464e-1, -5.989e-4
1750.000, -8.494e-1, -5.999e-4
1755.000, -8.524e-1, -6.024e-4
1760.000, -8.554e-1, -6.040e-4
1765.000, -8.584e-1, -6.039e-4
1770.000, -8.614e-1, -6.031e-4
1775.000, -8.644e-1, -6.034e-4
1780.000, -8.675e-1, -6.039e-4
1785.000, -8.705e-1, -6.053e-4
1790.000, -8.735e-1, -6.041e-4
1795.000, -8.765e-1, -6.045e-4
1800.000, -8.796e-1, -6.038e-4
1805.000, -8.826e-1, -6.037e-4
1810.000, -8.856e-1, -6.039e-4
1815.000, -8.886e-1, -6.045e-4
1820.000, -8.917e-1, -6.071e-4
1825.000, -8.947e-1, -6.073e-4
1830.000, -8.977e-1, -6.113e-4
1835.000, -9.008e-1, -6.123e-4
1840.000, -9.039e-1, -6.119e-4
1845.000, -9.069e-1, -6.125e-4
1850.000, -9.100e-1, -6.142e-4
1855.000, -9.131e-1, -6.164e-4
1860.000, -9.162e-1, -6.186e-4
1865.000, -9.193e-1, -6.215e-4
1870.000, -9.224e-1, -6.229e-4
1875.000, -9.255e-1, -6.229e-4
1880.000, -9.286e-1, -6.222e-4
1885.000, -9.317e-1, -6.205e-4
1890.000, -9.348e-1, -6.196e-4
1895.000, -9.379e-1, -6.195e-4
1900.000, -9.410e-1, -6.195e-4
1905.000, -9.441e-1, -6.199e-4
1910.000, -9.472e-1, -6.199e-4
1915.000, -9.503e-1, -6.205e-4
1920.000, -9.534e-1, -6.200e-4
1925.000, -9.565e-1, -6.186e-4
1930.000, -9.596e-1, -6.162e-4
1935.000, -9.627e-1, -6.146e-4
1940.000, -9.657e-1, -6.137e-4
1945.000, -9.688e-1, -6.133e-4
1950.000, -9.719e-1, -6.135e-4
1955.000, -9.749e-1, -6.134e-4
1960.000, -9.780e-1, -6.146e-4
1965.000, -9.811e-1, -6.157e-4
1970.000, -9.842e-1, -6.160e-4
1975.000, -9.872e-1, -6.158e-4
1980.000, -9.903e-1, -6.153e-4
1985.000, -9.934e-1, -6.143e-4
1990.000, -9.965e-1, -6.142e-4
1995.000, -9.995e-1, -6.151e-4
2000.000, -1.003e+0, -6.161e-4
2005.000, -1.006e+0, -6.177e-4
2010.000, -1.009e+0, -6.202e-4
2015.000, -1.012e+0, -6.210e-4
2020.000, -1.015e+0, -6.226e-4
2025.000, -1.018e+0, -6.263e-4
2030.000, -1.021e+0, -6.293e-4
2035.000, -1.024e+0, -6.320e-4
2040.000, -1.028e+0, -6.335e-4
2045.000, -1.031e+0, -6.320e-4
2050.000, -1.034e+0, -6.311e-4
2055.000, -1.037e+0, -6.310e-4
2060.000, -1.040e+0, -6.314e-4
2065.000, -1.043e+0, -6.324e-4
2070.000, -1.047e+0, -6.329e-4
2075.000, -1.050e+0, -6.337e-4
2080.000, -1.053e+0, -6.342e-4
2085.000, -1.056e+0, -6.365e-4
2090.000, -1.059e+0, -6.383e-4
2095.000, -1.062e+0, -6.389e-4
2100.000, -1.066e+0, -6.388e-4
2105.000, -1.069e+0, -6.384e-4
2110.000, -1.072e+0, -6.386e-4
2115.000, -1.075e+0, -6.400e-4
2120.000, -1.078e+0, -6.407e-4
2125.000, -1.082e+0, -6.458e-4
2130.000, -1.085e+0, -6.487e-4
2135.000, -1.088e+0, -6.504e-4
2140.000, -1.091e+0, -6.517e-4
2145.000, -1.095e+0, -6.522e-4
2150.000, -1.098e+0, -6.532e-4
2155.000, -1.101e+0, -6.542e-4
2160.000, -1.105e+0, -6.551e-4
2165.000, -1.108e+0, -6.553e-4
2170.000, -1.111e+0, -6.553e-4
2175.000, -1.114e+0, -6.563e-4
2180.000, -1.118e+0, -6.588e-4
2185.000, -1.121e+0, -6.613e-4
2190.000, -1.124e+0, -6.615e-4
2195.000, -1.128e+0, -6.625e-4
2200.000, -1.131e+0, -6.640e-4
2205.000, -1.134e+0, -6.633e-4
2210.000, -1.138e+0, -6.648e-4
2215.000, -1.141e+0, -6.670e-4
2220.000, -1.144e+0, -6.686e-4
2225.000, -1.148e+0, -6.698e-4
2230.000, -1.151e+0, -6.707e-4
2235.000, -1.154e+0, -6.718e-4
2240.000, -1.158e+0, -6.721e-4
2245.000, -1.161e+0, -6.728e-4
2250.000, -1.164e+0, -6.733e-4
2255.000, -1.168e+0, -6.727e-4
2260.000, -1.171e+0, -6.736e-4
2265.000, -1.174e+0, -6.740e-4
2270.000, -1.178e+0, -6.748e-4
2275.000, -1.181e+0, -6.748e-4
2280.000, -1.185e+0, -6.748e-4
2285.000, -1.188e+0, -6.738e-4
2290.000, -1.191e+0, -6.742e-4
2295.000, -1.195e+0, -6.753e-4
2300.000, -1.198e+0, -6.757e-4
2305.000, -1.201e+0, -6.742e-4
2310.000, -1.205e+0, -6.741e-4
2315.000, -1.208e+0, -6.748e-4
2320.000, -1.212e+0, -6.770e-4
2325.000, -1.215e+0, -6.778e-4
2330.000, -1.218e+0, -6.792e-4
2335.000, -1.222e+0, -6.816e-4
2340.000, -1.225e+0, -6.822e-4
2345.000, -1.229e+0, -6.820e-4
2350.000, -1.232e+0, -6.810e-4
2355.000, -1.235e+0, -6.797e-4
2360.000, -1.239e+0, -6.787e-4
2365.000, -1.242e+0, -6.768e-4
2370.000, -1.246e+0, -6.789e-4
2375.000, -1.249e+0, -6.820e-4
2380.000, -1.252e+0, -6.835e-4
2385.000, -1.256e+0, -6.831e-4
2390.000, -1.259e+0, -6.830e-4
2395.000, -1.263e+0, -6.825e-4
2400.000, -1.266e+0, -6.825e-4
2405.000, -1.269e+0, -6.816e-4
2410.000, -1.273e+0, -6.694e-4
2415.000, -1.276e+0, -6.751e-4
2420.000, -1.280e+0, -6.803e-4
2425.000, -1.283e+0, -6.819e-4
2430.000, -1.286e+0, -6.816e-4
2435.000, -1.290e+0, -6.819e-4
2440.000, -1.293e+0, -6.836e-4
2445.000, -1.297e+0, -6.846e-4
2450.000, -1.300e+0, -6.852e-4
2455.000, -1.304e+0, -6.861e-4
2460.000, -1.307e+0, -6.875e-4
2465.000, -1.310e+0, -6.891e-4
2470.000, -1.314e+0, -6.926e-4
2475.000, -1.317e+0, -6.944e-4
2480.000, -1.321e+0, -6.940e-4
2485.000, -1.324e+0, -6.953e-4
2490.000, -1.328e+0, -6.948e-4
2495.000, -1.331e+0, -6.942e-4
2500.000, -1.335e+0, -6.939e-4
2505.000, -1.338e+0, -6.940e-4
2510.000, -1.342e+0, -6.950e-4
2515.000, -1.345e+0, -6.962e-4
2520.000, -1.349e+0, -6.966e-4
2525.000, -1.352e+0, -6.974e-4
2530.000, -1.356e+0, -6.981e-4
2535.000, -1.359e+0, -6.978e-4
2540.000, -1.363e+0, -6.972e-4
2545.000, -1.366e+0, -6.959e-4
2550.000, -1.370e+0, -6.961e-4
2555.000, -1.373e+0, -6.974e-4
2560.000, -1.377e+0, -6.976e-4
2565.000, -1.380e+0, -6.969e-4
2570.000, -1.383e+0, -6.962e-4
2575.000, -1.387e+0, -6.963e-4
2580.000, -1.390e+0, -6.960e-4
2585.000, -1.394e+0, -6.957e-4
2590.000, -1.397e+0, -6.949e-4
2595.000, -1.401e+0, -6.956e-4
2600.000, -1.404e+0, -6.950e-4
2605.000, -1.408e+0, -6.952e-4
2610.000, -1.411e+0, -6.948e-4
2615.000, -1.415e+0, -6.957e-4
2620.000, -1.418e+0, -6.965e-4
2625.000, -1.422e+0, -6.966e-4
2630.000, -1.425e+0, -6.956e-4
2635.000, -1.429e+0, -6.953e-4
2640.000, -1.432e+0, -6.965e-4
2645.000, -1.436e+0, -6.970e-4
2650.000, -1.439e+0, -6.981e-4
2655.000, -1.443e+0, -6.996e-4
2660.000, -1.446e+0, -7.002e-4
2665.000, -1.450e+0, -7.011e-4
2670.000, -1.453e+0, -7.030e-4
2675.000, -1.457e+0, -7.058e-4
2680.000, -1.460e+0, -7.071e-4
2685.000, -1.464e+0, -7.063e-4
2690.000, -1.467e+0, -7.072e-4
2695.000, -1.471e+0, -7.075e-4
2700.000, -1.474e+0, -7.080e-4
2705.000, -1.478e+0, -7.079e-4
2710.000, -1.481e+0, -7.086e-4
2715.000, -1.485e+0, -7.076e-4
2720.000, -1.489e+0, -7.061e-4
2725.000, -1.492e+0, -7.049e-4
2730.000, -1.496e+0, -7.047e-4
2735.000, -1.499e+0, -7.046e-4
2740.000, -1.503e+0, -7.045e-4
2745.000, -1.506e+0, -7.053e-4
2750.000, -1.510e+0, -7.069e-4
2755.000, -1.513e+0, -7.081e-4
2760.000, -1.517e+0, -7.078e-4
2765.000, -1.520e+0, -7.059e-4
2770.000, -1.524e+0, -7.066e-4
2775.000, -1.527e+0, -7.067e-4
2780.000, -1.531e+0, -7.081e-4
2785.000, -1.534e+0, -7.105e-4
2790.000, -1.538e+0, -7.113e-4
2795.000, -1.542e+0, -7.122e-4
2800.000, -1.545e+0, -7.150e-4
2805.000, -1.549e+0, -7.161e-4
2810.000, -1.552e+0, -7.169e-4
2815.000, -1.556e+0, -7.172e-4
2820.000, -1.559e+0, -7.186e-4
2825.000, -1.563e+0, -7.201e-4
2830.000, -1.567e+0, -7.202e-4
2835.000, -1.570e+0, -7.195e-4
2840.000, -1.574e+0, -7.199e-4
2845.000, -1.577e+0, -7.217e-4
2850.000, -1.581e+0, -7.257e-4
2855.000, -1.585e+0, -7.290e-4
2860.000, -1.588e+0, -7.319e-4
2865.000, -1.592e+0, -7.325e-4
2870.000, -1.596e+0, -7.319e-4
2875.000, -1.599e+0, -7.293e-4
2880.000, -1.603e+0, -7.285e-4
2885.000, -1.607e+0, -7.283e-4
2890.000, -1.610e+0, -7.285e-4
2895.000, -1.614e+0, -7.286e-4
2900.000, -1.618e+0, -7.299e-4
2905.000, -1.621e+0, -7.307e-4
2910.000, -1.625e+0, -7.308e-4
2915.000, -1.629e+0, -7.308e-4
2920.000, -1.632e+0, -7.323e-4
2925.000, -1.636e+0, -7.343e-4
2930.000, -1.640e+0, -7.364e-4
2935.000, -1.643e+0, -7.379e-4
2940.000, -1.647e+0, -7.383e-4
2945.000, -1.651e+0, -7.376e-4
2950.000, -1.654e+0, -7.374e-4
2955.000, -1.658e+0, -7.364e-4
2960.000, -1.662e+0, -7.354e-4
2965.000, -1.665e+0, -7.351e-4
2970.000, -1.669e+0, -7.360e-4
2975.000, -1.673e+0, -7.372e-4
2980.000, -1.676e+0, -7.376e-4
2985.000, -1.680e+0, -7.379e-4
2990.000, -1.684e+0, -7.384e-4
2995.000, -1.688e+0, -7.393e-4
3000.000, -1.691e+0, -7.394e-4
3005.000, -1.695e+0, -7.396e-4
3010.000, -1.699e+0, -7.393e-4
3015.000, -1.702e+0, -7.385e-4
3020.000, -1.706e+0, -7.380e-4
3025.000, -1.710e+0, -7.368e-4
3030.000, -1.713e+0, -7.365e-4
3035.000, -1.717e+0, -7.373e-4
3040.000, -1.721e+0, -7.387e-4
3045.000, -1.724e+0, -7.398e-4
3050.000, -1.728e+0, -7.395e-4
3055.000, -1.732e+0, -7.384e-4
3060.000, -1.736e+0, -7.419e-4
3065.000, -1.739e+0, -7.440e-4
3070.000, -1.743e+0, -7.453e-4
3075.000, -1.747e+0, -7.458e-4
3080.000, -1.750e+0, -7.453e-4
3085.000, -1.754e+0, -7.452e-4
3090.000, -1.758e+0, -7.447e-4
3095.000, -1.762e+0, -7.451e-4
3100.000, -1.765e+0, -7.459e-4
3105.000, -1.769e+0, -7.460e-4
3110.000, -1.773e+0, -7.462e-4
